  Sc II HFS : all                                                               
 OSMARC05 T4550:g1.53:z-2.51:a+0.40:he0.085 TAU_5000 Tvt= 1.50 M/H=-2.53        

Abundance Results for Species Sc II        (input abundance =   0.57)
wavelength        EP     logGF        EW     logRW     abund     del avg
   4246.81      0.31    -0.306     100.0     -4.63      0.01       -1.93
   4246.81      0.31    -0.876     100.0     -4.63    999.99      999.99
   4246.82      0.31    -0.718     100.0     -4.63    999.99      999.99
   4246.82      0.31    -0.704     100.0     -4.63    999.99      999.99
   4246.82      0.31    -0.876     100.0     -4.63    999.99      999.99
   4246.83      0.31    -0.729     100.0     -4.63    999.99      999.99
   4246.83      0.31    -1.400     100.0     -4.63    999.99      999.99
   4246.83      0.31    -0.718     100.0     -4.63    999.99      999.99
   4246.83      0.31    -0.902     100.0     -4.63    999.99      999.99
   4246.83      0.31    -2.826     100.0     -4.63    999.99      999.99
   4246.83      0.31    -0.729     100.0     -4.63    999.99      999.99
   4246.83      0.31    -1.078     100.0     -4.63    999.99      999.99
   4246.83      0.31    -0.902     100.0     -4.63    999.99      999.99
   4314.08      0.62    -0.753     100.0     -4.63      0.89       -1.05
   4314.08      0.62    -2.895     100.0     -4.63    999.99      999.99
   4314.08      0.62    -1.682     100.0     -4.63    999.99      999.99
   4314.08      0.62    -2.492     100.0     -4.63    999.99      999.99
   4314.08      0.62    -1.477     100.0     -4.63    999.99      999.99
   4314.08      0.62    -2.280     100.0     -4.63    999.99      999.99
   4314.08      0.62    -0.874     100.0     -4.63    999.99      999.99
   4314.08      0.62    -2.170     100.0     -4.63    999.99      999.99
   4314.08      0.62    -1.411     100.0     -4.63    999.99      999.99
   4314.08      0.62    -1.415     100.0     -4.63    999.99      999.99
   4314.08      0.62    -1.010     100.0     -4.63    999.99      999.99
   4314.09      0.62    -2.149     100.0     -4.63    999.99      999.99
   4314.09      0.62    -1.166     100.0     -4.63    999.99      999.99
   4314.09      0.62    -2.258     100.0     -4.63    999.99      999.99
   4314.09      0.62    -1.598     100.0     -4.63    999.99      999.99
   4314.09      0.62    -1.476     100.0     -4.63    999.99      999.99
   4314.09      0.62    -1.351     100.0     -4.63    999.99      999.99
   4314.09      0.62    -1.781     100.0     -4.63    999.99      999.99
   4314.09      0.62    -1.927     100.0     -4.63    999.99      999.99
   4314.09      0.62    -1.585     100.0     -4.63    999.99      999.99
   4320.73      0.61    -0.862     100.0     -4.64      1.04       -0.90
   4320.73      0.61    -2.602     100.0     -4.64    999.99      999.99
   4320.73      0.61    -2.184     100.0     -4.64    999.99      999.99
   4320.73      0.61    -1.804     100.0     -4.64    999.99      999.99
   4320.73      0.61    -1.950     100.0     -4.64    999.99      999.99
   4320.73      0.61    -1.707     100.0     -4.64    999.99      999.99
   4320.73      0.61    -1.602     100.0     -4.64    999.99      999.99
   4320.73      0.61    -1.628     100.0     -4.64    999.99      999.99
   4320.73      0.61    -1.445     100.0     -4.64    999.99      999.99
   4320.73      0.61    -1.386     100.0     -4.64    999.99      999.99
   4320.73      0.61    -1.419     100.0     -4.64    999.99      999.99
   4320.73      0.61    -1.929     100.0     -4.64    999.99      999.99
   4320.73      0.61    -1.511     100.0     -4.64    999.99      999.99
   4320.73      0.61    -1.240     100.0     -4.64    999.99      999.99
   4320.73      0.61    -1.033     100.0     -4.64    999.99      999.99
   4325.00      0.60    -0.963     100.0     -4.64      1.03       -0.91
   4324.98      0.60    -2.151     100.0     -4.64    999.99      999.99
   4324.99      0.60    -1.711     100.0     -4.64    999.99      999.99
   4324.99      0.60    -1.440     100.0     -4.64    999.99      999.99
   4324.99      0.60    -1.336     100.0     -4.64    999.99      999.99
   4324.99      0.60    -1.452     100.0     -4.64    999.99      999.99
   4324.99      0.60    -1.456     100.0     -4.64    999.99      999.99
   4325.00      0.60    -1.711     100.0     -4.64    999.99      999.99
   4325.00      0.60    -1.256     100.0     -4.64    999.99      999.99
   4325.00      0.60    -0.963     100.0     -4.64    999.99      999.99
   4400.38      0.61    -1.983     100.0     -4.64    999.99      999.99
   4400.38      0.61    -1.788     100.0     -4.64    999.99      999.99
   4400.38      0.61    -1.175     100.0     -4.64      1.18       -0.75
   4400.39      0.61    -1.735     100.0     -4.64    999.99      999.99
   4400.39      0.61    -1.403     100.0     -4.64    999.99      999.99
   4400.39      0.61    -1.761     100.0     -4.64    999.99      999.99
   4400.39      0.61    -1.689     100.0     -4.64    999.99      999.99
   4400.39      0.61    -1.983     100.0     -4.64    999.99      999.99
   4400.39      0.61    -1.860     100.0     -4.64    999.99      999.99
   4400.39      0.61    -2.075     100.0     -4.64    999.99      999.99
   4400.39      0.61    -1.788     100.0     -4.64    999.99      999.99
   4400.40      0.61    -2.705     100.0     -4.64    999.99      999.99
   4400.40      0.61    -2.082     100.0     -4.64    999.99      999.99
   4400.40      0.61    -1.735     100.0     -4.64    999.99      999.99
   4400.40      0.61    -2.559     100.0     -4.64    999.99      999.99
   4400.40      0.61    -1.860     100.0     -4.64    999.99      999.99
   4400.40      0.61    -1.761     100.0     -4.64    999.99      999.99
   4400.40      0.61    -2.082     100.0     -4.64    999.99      999.99
   4415.54      0.60    -1.836     100.0     -4.64    999.99      999.99
   4415.55      0.60    -1.678     100.0     -4.64    999.99      999.99
   4415.55      0.60    -1.689     100.0     -4.64    999.99      999.99
   4415.55      0.60    -1.266     100.0     -4.64      1.25       -0.69
   4415.56      0.60    -1.862     100.0     -4.64    999.99      999.99
   4415.56      0.60    -1.664     100.0     -4.64    999.99      999.99
   4415.56      0.60    -2.356     100.0     -4.64    999.99      999.99
   4415.56      0.60    -3.786     100.0     -4.64    999.99      999.99
   4415.56      0.60    -2.038     100.0     -4.64    999.99      999.99
   4415.57      0.60    -1.862     100.0     -4.64    999.99      999.99
   4415.57      0.60    -1.689     100.0     -4.64    999.99      999.99
   4415.57      0.60    -1.678     100.0     -4.64    999.99      999.99
   4415.57      0.60    -1.836     100.0     -4.64    999.99      999.99
   4670.40      1.36    -1.182     100.0     -4.67      2.12        0.18
   4670.40      1.36    -1.353     100.0     -4.67    999.99      999.99
   4670.40      1.36    -1.560     100.0     -4.67    999.99      999.99
   4670.41      1.36    -1.831     100.0     -4.67    999.99      999.99
   4670.41      1.36    -1.922     100.0     -4.67    999.99      999.99
   4670.41      1.36    -2.249     100.0     -4.67    999.99      999.99
   4670.41      1.36    -1.739     100.0     -4.67    999.99      999.99
   4670.41      1.36    -1.706     100.0     -4.67    999.99      999.99
   4670.41      1.36    -1.765     100.0     -4.67    999.99      999.99
   4670.41      1.36    -1.948     100.0     -4.67    999.99      999.99
   4670.42      1.36    -2.027     100.0     -4.67    999.99      999.99
   4670.42      1.36    -2.124     100.0     -4.67    999.99      999.99
   4670.42      1.36    -2.922     100.0     -4.67    999.99      999.99
   4670.42      1.36    -2.270     100.0     -4.67    999.99      999.99
   4670.42      1.36    -2.504     100.0     -4.67    999.99      999.99
   5031.01      1.36    -1.260     100.0     -4.70    999.99      999.99
   5031.01      1.36    -1.276     100.0     -4.70    999.99      999.99
   5031.01      1.36    -1.531     100.0     -4.70    999.99      999.99
   5031.02      1.36    -1.531     100.0     -4.70    999.99      999.99
   5031.02      1.36    -1.156     100.0     -4.70    999.99      999.99
   5031.02      1.36    -1.971     100.0     -4.70    999.99      999.99
   5031.02      1.36    -1.076     100.0     -4.70    999.99      999.99
   5031.02      1.36    -1.272     100.0     -4.70    999.99      999.99
   5031.03      1.36    -0.783     100.0     -4.70      1.66       -0.28
   5318.34      1.36    -3.751     100.0     -4.73    999.99      999.99
   5318.34      1.36    -3.311     100.0     -4.73    999.99      999.99
   5318.34      1.36    -3.052     100.0     -4.73    999.99      999.99
   5318.35      1.36    -3.040     100.0     -4.73    999.99      999.99
   5318.35      1.36    -2.936     100.0     -4.73    999.99      999.99
   5318.35      1.36    -3.056     100.0     -4.73    999.99      999.99
   5318.35      1.36    -2.563     100.0     -4.73      3.42        1.48
   5318.35      1.36    -2.856     100.0     -4.73    999.99      999.99
   5318.35      1.36    -3.311     100.0     -4.73    999.99      999.99
   5526.77      1.77    -2.665     100.0     -4.74    999.99      999.99
   5526.77      1.77    -2.262     100.0     -4.74    999.99      999.99
   5526.78      1.77    -2.050     100.0     -4.74    999.99      999.99
   5526.78      1.77    -1.452     100.0     -4.74    999.99      999.99
   5526.78      1.77    -1.940     100.0     -4.74    999.99      999.99
   5526.78      1.77    -1.247     100.0     -4.74    999.99      999.99
   5526.79      1.77    -1.181     100.0     -4.74    999.99      999.99
   5526.79      1.77    -1.919     100.0     -4.74    999.99      999.99
   5526.79      1.77    -1.185     100.0     -4.74    999.99      999.99
   5526.79      1.77    -0.523     100.0     -4.74      1.73       -0.21
   5526.79      1.77    -2.028     100.0     -4.74    999.99      999.99
   5526.79      1.77    -1.246     100.0     -4.74    999.99      999.99
   5526.79      1.77    -0.644     100.0     -4.74    999.99      999.99
   5526.79      1.77    -1.368     100.0     -4.74    999.99      999.99
   5526.79      1.77    -1.551     100.0     -4.74    999.99      999.99
   5526.79      1.77    -0.780     100.0     -4.74    999.99      999.99
   5526.79      1.77    -0.936     100.0     -4.74    999.99      999.99
   5526.80      1.77    -1.697     100.0     -4.74    999.99      999.99
   5526.80      1.77    -1.355     100.0     -4.74    999.99      999.99
   5526.80      1.77    -1.121     100.0     -4.74    999.99      999.99
   5640.99      1.50    -1.563     100.0     -4.75      2.44        0.50
   5641.00      1.50    -2.052     100.0     -4.75    999.99      999.99
   5641.00      1.50    -1.856     100.0     -4.75    999.99      999.99
   5641.00      1.50    -2.751     100.0     -4.75    999.99      999.99
   5641.01      1.50    -1.936     100.0     -4.75    999.99      999.99
   5641.01      1.50    -2.311     100.0     -4.75    999.99      999.99
   5641.01      1.50    -2.311     100.0     -4.75    999.99      999.99
   5641.01      1.50    -2.056     100.0     -4.75    999.99      999.99
   5641.02      1.50    -2.040     100.0     -4.75    999.99      999.99
   5657.89      1.51    -1.126     100.0     -4.75      1.95        0.01
   5657.89      1.51    -1.696     100.0     -4.75    999.99      999.99
   5657.89      1.51    -1.696     100.0     -4.75    999.99      999.99
   5657.90      1.51    -1.524     100.0     -4.75    999.99      999.99
   5657.90      1.51    -1.538     100.0     -4.75    999.99      999.99
   5657.90      1.51    -1.538     100.0     -4.75    999.99      999.99
   5657.90      1.51    -2.220     100.0     -4.75    999.99      999.99
   5657.90      1.51    -1.549     100.0     -4.75    999.99      999.99
   5657.90      1.51    -1.549     100.0     -4.75    999.99      999.99
   5657.91      1.51    -1.722     100.0     -4.75    999.99      999.99
   5657.91      1.51    -3.646     100.0     -4.75    999.99      999.99
   5657.91      1.51    -1.722     100.0     -4.75    999.99      999.99
   5657.91      1.51    -1.898     100.0     -4.75    999.99      999.99
   5658.35      1.50    -1.550     100.0     -4.75      2.59        0.65
   5658.36      1.50    -1.647     100.0     -4.75    999.99      999.99
   5658.37      1.50    -1.772     100.0     -4.75    999.99      999.99
   5667.14      1.50    -1.834     100.0     -4.75      2.61        0.67
   5667.14      1.50    -2.030     100.0     -4.75    999.99      999.99
   5667.15      1.50    -2.030     100.0     -4.75    999.99      999.99
   5667.15      1.50    -3.215     100.0     -4.75    999.99      999.99
   5667.16      1.50    -2.034     100.0     -4.75    999.99      999.99
   5667.16      1.50    -2.034     100.0     -4.75    999.99      999.99
   5667.17      1.50    -2.289     100.0     -4.75    999.99      999.99
   5669.04      1.50    -1.500     100.0     -4.75      2.60        0.66
   5669.04      1.50    -1.597     100.0     -4.75    999.99      999.99
   5669.05      1.50    -1.722     100.0     -4.75    999.99      999.99
   5684.19      1.51    -1.603     100.0     -4.75      2.48        0.54
   5684.19      1.51    -2.092     100.0     -4.75    999.99      999.99
   5684.19      1.51    -2.791     100.0     -4.75    999.99      999.99
   5684.20      1.51    -1.896     100.0     -4.75    999.99      999.99
   5684.20      1.51    -1.976     100.0     -4.75    999.99      999.99
   5684.21      1.51    -2.351     100.0     -4.75    999.99      999.99
   5684.22      1.51    -2.351     100.0     -4.75    999.99      999.99
   5684.22      1.51    -2.096     100.0     -4.75    999.99      999.99
   5684.22      1.51    -2.080     100.0     -4.75    999.99      999.99
   6245.62      1.51    -1.736     100.0     -4.80      2.43        0.49
   6245.63      1.51    -2.476     100.0     -4.80    999.99      999.99
   6245.63      1.51    -1.907     100.0     -4.80    999.99      999.99
   6245.64      1.51    -3.476     100.0     -4.80    999.99      999.99
   6245.64      1.51    -2.293     100.0     -4.80    999.99      999.99
   6245.64      1.51    -2.114     100.0     -4.80    999.99      999.99
   6245.64      1.51    -3.058     100.0     -4.80    999.99      999.99
   6245.65      1.51    -2.260     100.0     -4.80    999.99      999.99
   6245.65      1.51    -2.385     100.0     -4.80    999.99      999.99
   6245.65      1.51    -2.824     100.0     -4.80    999.99      999.99
   6245.65      1.51    -2.319     100.0     -4.80    999.99      999.99
   6245.65      1.51    -2.803     100.0     -4.80    999.99      999.99
   6245.65      1.51    -2.678     100.0     -4.80    999.99      999.99
   6245.66      1.51    -2.502     100.0     -4.80    999.99      999.99
   6245.66      1.51    -2.581     100.0     -4.80    999.99      999.99
   6309.91      1.50    -1.950     100.0     -4.80      2.83        0.89
   6309.92      1.50    -2.047     100.0     -4.80    999.99      999.99
   6309.94      1.50    -2.172     100.0     -4.80    999.99      999.99
   6604.58      1.36    -2.676     100.0     -4.82    999.99      999.99
   6604.59      1.36    -2.518     100.0     -4.82    999.99      999.99
   6604.59      1.36    -2.106     100.0     -4.82      2.57        0.63
   6604.60      1.36    -2.529     100.0     -4.82    999.99      999.99
   6604.60      1.36    -2.504     100.0     -4.82    999.99      999.99
   6604.60      1.36    -2.702     100.0     -4.82    999.99      999.99
   6604.60      1.36    -3.200     100.0     -4.82    999.99      999.99
   6604.61      1.36    -4.626     100.0     -4.82    999.99      999.99
   6604.61      1.36    -2.878     100.0     -4.82    999.99      999.99
   6604.61      1.36    -2.676     100.0     -4.82    999.99      999.99
   6604.61      1.36    -2.518     100.0     -4.82    999.99      999.99
   6604.61      1.36    -2.702     100.0     -4.82    999.99      999.99
   6604.61      1.36    -2.529     100.0     -4.82    999.99      999.99
average abundance =  1.94     std. deviation =  0.85     #lines =  19
 No statistics done for E.P. trends
 No statistics done for R.W. trends
wav. correl.:  slope =   8.945E-04  intercept =  -2.756  corr. coeff. =   0.798
