 Co I from all : hfs                                                            
 OSMARC05 T4550:g1.53:z-2.51:a+0.40:he0.085 TAU_5000 Tvt= 1.50 M/H=-2.53        

Abundance Results for Species Co I         (input abundance =   2.39)
wavelength        EP     logGF        EW     logRW     abund     del avg
   3842.05      0.92    -1.400     100.0     -4.58      3.36        0.25
   3842.03      0.92    -3.354     100.0     -4.58    999.99      999.99
   3842.03      0.92    -2.944     100.0     -4.58    999.99      999.99
   3842.04      0.92    -2.722     100.0     -4.58    999.99      999.99
   3842.04      0.92    -2.597     100.0     -4.58    999.99      999.99
   3842.04      0.92    -2.240     100.0     -4.58    999.99      999.99
   3842.04      0.92    -2.546     100.0     -4.58    999.99      999.99
   3842.04      0.92    -2.044     100.0     -4.58    999.99      999.99
   3842.04      0.92    -1.990     100.0     -4.58    999.99      999.99
   3842.04      0.92    -2.576     100.0     -4.58    999.99      999.99
   3842.05      0.92    -2.012     100.0     -4.58    999.99      999.99
   3842.05      0.92    -2.291     100.0     -4.58    999.99      999.99
   3842.05      0.92    -2.103     100.0     -4.58    999.99      999.99
   3842.05      0.92    -2.546     100.0     -4.58    999.99      999.99
   3842.05      0.92    -2.158     100.0     -4.58    999.99      999.99
   3842.05      0.92    -1.903     100.0     -4.58    999.99      999.99
   3842.05      0.92    -1.705     100.0     -4.58    999.99      999.99
   3842.05      0.92    -1.541     100.0     -4.58    999.99      999.99
   3845.46      0.92    -0.663     100.0     -4.58      2.43       -0.67
   3845.46      0.92    -0.768     100.0     -4.58    999.99      999.99
   3845.47      0.92    -0.884     100.0     -4.58    999.99      999.99
   3845.47      0.92    -1.013     100.0     -4.58    999.99      999.99
   3845.47      0.92    -1.159     100.0     -4.58    999.99      999.99
   3845.47      0.92    -1.329     100.0     -4.58    999.99      999.99
   3845.47      0.92    -1.671     100.0     -4.58    999.99      999.99
   3845.48      0.92    -1.533     100.0     -4.58    999.99      999.99
   3845.48      0.92    -1.460     100.0     -4.58    999.99      999.99
   3845.48      0.92    -1.387     100.0     -4.58    999.99      999.99
   3845.48      0.92    -1.796     100.0     -4.58    999.99      999.99
   3845.48      0.92    -1.381     100.0     -4.58    999.99      999.99
   3845.48      0.92    -1.729     100.0     -4.58    999.99      999.99
   3845.48      0.92    -1.533     100.0     -4.58    999.99      999.99
   3845.48      0.92    -1.428     100.0     -4.58    999.99      999.99
   3845.49      0.92    -2.428     100.0     -4.58    999.99      999.99
   3845.49      0.92    -2.273     100.0     -4.58    999.99      999.99
   3845.49      0.92    -2.273     100.0     -4.58    999.99      999.99
   3845.49      0.92    -2.370     100.0     -4.58    999.99      999.99
   3845.49      0.92    -2.574     100.0     -4.58    999.99      999.99
   3845.49      0.92    -2.972     100.0     -4.58    999.99      999.99
   3873.13      0.43    -1.333     100.0     -4.59      2.12       -0.98
   3873.07      0.43    -3.642     100.0     -4.59    999.99      999.99
   3873.07      0.43    -3.244     100.0     -4.59    999.99      999.99
   3873.07      0.43    -3.040     100.0     -4.59    999.99      999.99
   3873.08      0.43    -2.943     100.0     -4.59    999.99      999.99
   3873.08      0.43    -2.943     100.0     -4.59    999.99      999.99
   3873.08      0.43    -3.098     100.0     -4.59    999.99      999.99
   3873.09      0.43    -2.399     100.0     -4.59    999.99      999.99
   3873.09      0.43    -2.203     100.0     -4.59    999.99      999.99
   3873.09      0.43    -2.098     100.0     -4.59    999.99      999.99
   3873.09      0.43    -2.466     100.0     -4.59    999.99      999.99
   3873.09      0.43    -2.051     100.0     -4.59    999.99      999.99
   3873.09      0.43    -2.057     100.0     -4.59    999.99      999.99
   3873.10      0.43    -2.130     100.0     -4.59    999.99      999.99
   3873.10      0.43    -2.203     100.0     -4.59    999.99      999.99
   3873.10      0.43    -2.341     100.0     -4.59    999.99      999.99
   3873.10      0.43    -1.999     100.0     -4.59    999.99      999.99
   3873.11      0.43    -1.829     100.0     -4.59    999.99      999.99
   3873.11      0.43    -1.683     100.0     -4.59    999.99      999.99
   3873.12      0.43    -1.554     100.0     -4.59    999.99      999.99
   3873.13      0.43    -1.438     100.0     -4.59    999.99      999.99
   3881.88      0.58    -1.697     100.0     -4.59      3.14        0.03
   3881.85      0.58    -3.188     100.0     -4.59    999.99      999.99
   3881.86      0.58    -2.760     100.0     -4.59    999.99      999.99
   3881.86      0.58    -2.510     100.0     -4.59    999.99      999.99
   3881.86      0.58    -2.323     100.0     -4.59    999.99      999.99
   3881.87      0.58    -2.334     100.0     -4.59    999.99      999.99
   3881.87      0.58    -2.162     100.0     -4.59    999.99      999.99
   3881.87      0.58    -2.170     100.0     -4.59    999.99      999.99
   3881.87      0.58    -2.334     100.0     -4.59    999.99      999.99
   3881.88      0.58    -2.635     100.0     -4.59    999.99      999.99
   3881.88      0.58    -2.196     100.0     -4.59    999.99      999.99
   3881.88      0.58    -1.913     100.0     -4.59    999.99      999.99
   3995.30      0.92    -0.893     100.0     -4.60      2.72       -0.39
   3995.30      0.92    -0.998     100.0     -4.60    999.99      999.99
   3995.30      0.92    -1.389     100.0     -4.60    999.99      999.99
   3995.30      0.92    -1.243     100.0     -4.60    999.99      999.99
   3995.30      0.92    -1.114     100.0     -4.60    999.99      999.99
   3995.31      0.92    -1.559     100.0     -4.60    999.99      999.99
   3995.31      0.92    -1.763     100.0     -4.60    999.99      999.99
   3995.31      0.92    -2.026     100.0     -4.60    999.99      999.99
   3995.31      0.92    -1.959     100.0     -4.60    999.99      999.99
   3995.31      0.92    -1.763     100.0     -4.60    999.99      999.99
   3995.31      0.92    -1.658     100.0     -4.60    999.99      999.99
   3995.31      0.92    -1.611     100.0     -4.60    999.99      999.99
   3995.32      0.92    -2.658     100.0     -4.60    999.99      999.99
   3995.32      0.92    -1.617     100.0     -4.60    999.99      999.99
   3995.32      0.92    -1.690     100.0     -4.60    999.99      999.99
   3995.32      0.92    -2.503     100.0     -4.60    999.99      999.99
   3995.32      0.92    -1.901     100.0     -4.60    999.99      999.99
   3995.32      0.92    -2.503     100.0     -4.60    999.99      999.99
   3995.32      0.92    -2.600     100.0     -4.60    999.99      999.99
   3995.33      0.92    -2.804     100.0     -4.60    999.99      999.99
   3995.33      0.92    -3.202     100.0     -4.60    999.99      999.99
   4020.90      0.43    -2.779     100.0     -4.60      3.46        0.35
   4020.86      0.43    -3.842     100.0     -4.60    999.99      999.99
   4020.87      0.43    -3.627     100.0     -4.60    999.99      999.99
   4020.87      0.43    -3.550     100.0     -4.60    999.99      999.99
   4020.88      0.43    -3.539     100.0     -4.60    999.99      999.99
   4020.88      0.43    -3.582     100.0     -4.60    999.99      999.99
   4020.88      0.43    -3.685     100.0     -4.60    999.99      999.99
   4020.89      0.43    -3.906     100.0     -4.60    999.99      999.99
   4020.90      0.43    -3.710     100.0     -4.60    999.99      999.99
   4020.90      0.43    -3.696     100.0     -4.60    999.99      999.99
   4020.90      0.43    -3.558     100.0     -4.60    999.99      999.99
   4020.90      0.43    -3.391     100.0     -4.60    999.99      999.99
   4020.90      0.43    -3.222     100.0     -4.60    999.99      999.99
   4020.90      0.43    -3.063     100.0     -4.60    999.99      999.99
   4020.90      0.43    -2.915     100.0     -4.60    999.99      999.99
   4020.91      0.43    -3.906     100.0     -4.60    999.99      999.99
   4020.91      0.43    -3.685     100.0     -4.60    999.99      999.99
   4020.91      0.43    -3.582     100.0     -4.60    999.99      999.99
   4020.92      0.43    -3.539     100.0     -4.60    999.99      999.99
   4020.93      0.43    -3.550     100.0     -4.60    999.99      999.99
   4020.93      0.43    -3.627     100.0     -4.60    999.99      999.99
   4020.93      0.43    -3.842     100.0     -4.60    999.99      999.99
   4110.53      1.05    -1.726     100.0     -4.61      3.07       -0.04
   4110.50      1.05    -2.425     100.0     -4.61    999.99      999.99
   4110.50      1.05    -2.244     100.0     -4.61    999.99      999.99
   4110.51      1.05    -2.213     100.0     -4.61    999.99      999.99
   4110.51      1.05    -2.277     100.0     -4.61    999.99      999.99
   4110.52      1.05    -2.476     100.0     -4.61    999.99      999.99
   4110.53      1.05    -2.731     100.0     -4.61    999.99      999.99
   4110.53      1.05    -4.384     100.0     -4.61    999.99      999.99
   4110.53      1.05    -3.141     100.0     -4.61    999.99      999.99
   4110.53      1.05    -2.424     100.0     -4.61    999.99      999.99
   4110.53      1.05    -2.018     100.0     -4.61    999.99      999.99
   4110.54      1.05    -2.476     100.0     -4.61    999.99      999.99
   4110.55      1.05    -2.277     100.0     -4.61    999.99      999.99
   4110.56      1.05    -2.213     100.0     -4.61    999.99      999.99
   4110.56      1.05    -2.244     100.0     -4.61    999.99      999.99
   4110.57      1.05    -2.425     100.0     -4.61    999.99      999.99
   4118.76      1.05    -1.623     100.0     -4.61    999.99      999.99
   4118.76      1.05    -1.425     100.0     -4.61    999.99      999.99
   4118.76      1.05    -1.261     100.0     -4.61    999.99      999.99
   4118.76      1.05    -1.120     100.0     -4.61      2.72       -0.39
   4118.77      1.05    -1.878     100.0     -4.61    999.99      999.99
   4118.77      1.05    -2.266     100.0     -4.61    999.99      999.99
   4118.78      1.05    -2.011     100.0     -4.61    999.99      999.99
   4118.78      1.05    -1.823     100.0     -4.61    999.99      999.99
   4118.78      1.05    -2.296     100.0     -4.61    999.99      999.99
   4118.78      1.05    -1.732     100.0     -4.61    999.99      999.99
   4118.79      1.05    -1.710     100.0     -4.61    999.99      999.99
   4118.79      1.05    -2.266     100.0     -4.61    999.99      999.99
   4118.80      1.05    -1.764     100.0     -4.61    999.99      999.99
   4118.80      1.05    -2.317     100.0     -4.61    999.99      999.99
   4118.80      1.05    -1.960     100.0     -4.61    999.99      999.99
   4118.81      1.05    -2.442     100.0     -4.61    999.99      999.99
   4118.82      1.05    -2.664     100.0     -4.61    999.99      999.99
   4118.83      1.05    -3.074     100.0     -4.61    999.99      999.99
   4121.30      0.92    -0.993     100.0     -4.62      2.44       -0.67
   4121.31      0.92    -1.098     100.0     -4.62    999.99      999.99
   4121.31      0.92    -1.214     100.0     -4.62    999.99      999.99
   4121.32      0.92    -1.343     100.0     -4.62    999.99      999.99
   4121.32      0.92    -2.001     100.0     -4.62    999.99      999.99
   4121.32      0.92    -1.489     100.0     -4.62    999.99      999.99
   4121.33      0.92    -1.790     100.0     -4.62    999.99      999.99
   4121.33      0.92    -1.659     100.0     -4.62    999.99      999.99
   4121.33      0.92    -1.717     100.0     -4.62    999.99      999.99
   4121.33      0.92    -1.863     100.0     -4.62    999.99      999.99
   4121.33      0.92    -1.711     100.0     -4.62    999.99      999.99
   4121.34      0.92    -1.758     100.0     -4.62    999.99      999.99
   4121.34      0.92    -2.126     100.0     -4.62    999.99      999.99
   4121.34      0.92    -1.863     100.0     -4.62    999.99      999.99
   4121.34      0.92    -2.059     100.0     -4.62    999.99      999.99
   4121.34      0.92    -3.302     100.0     -4.62    999.99      999.99
   4121.34      0.92    -2.758     100.0     -4.62    999.99      999.99
   4121.34      0.92    -2.904     100.0     -4.62    999.99      999.99
   4121.35      0.92    -2.603     100.0     -4.62    999.99      999.99
   4121.35      0.92    -2.603     100.0     -4.62    999.99      999.99
   4121.35      0.92    -2.700     100.0     -4.62    999.99      999.99
   5483.31      1.71    -2.120     100.0     -4.74      3.87        0.76
   5483.33      1.71    -2.261     100.0     -4.74    999.99      999.99
   5483.34      1.71    -2.961     100.0     -4.74    999.99      999.99
   5483.35      1.71    -2.425     100.0     -4.74    999.99      999.99
   5483.36      1.71    -2.764     100.0     -4.74    999.99      999.99
   5483.37      1.71    -2.623     100.0     -4.74    999.99      999.99
   5483.37      1.71    -4.074     100.0     -4.74    999.99      999.99
   5483.38      1.71    -2.710     100.0     -4.74    999.99      999.99
   5483.38      1.71    -2.878     100.0     -4.74    999.99      999.99
   5483.39      1.71    -3.664     100.0     -4.74    999.99      999.99
   5483.39      1.71    -2.732     100.0     -4.74    999.99      999.99
   5483.39      1.71    -3.266     100.0     -4.74    999.99      999.99
   5483.40      1.71    -2.822     100.0     -4.74    999.99      999.99
   5483.40      1.71    -3.442     100.0     -4.74    999.99      999.99
   5483.40      1.71    -3.011     100.0     -4.74    999.99      999.99
   5483.40      1.71    -3.317     100.0     -4.74    999.99      999.99
   5483.41      1.71    -3.296     100.0     -4.74    999.99      999.99
   5483.41      1.71    -3.266     100.0     -4.74    999.99      999.99
   5647.21      2.28    -2.127     100.0     -4.75      4.89        1.78
   5647.22      2.28    -2.343     100.0     -4.75    999.99      999.99
   5647.23      2.28    -2.626     100.0     -4.75    999.99      999.99
   5647.24      2.28    -2.753     100.0     -4.75    999.99      999.99
   5647.24      2.28    -3.065     100.0     -4.75    999.99      999.99
   5647.25      2.28    -2.592     100.0     -4.75    999.99      999.99
   5647.25      2.28    -2.600     100.0     -4.75    999.99      999.99
   5647.26      2.28    -2.764     100.0     -4.75    999.99      999.99
   5647.27      2.28    -3.618     100.0     -4.75    999.99      999.99
   5647.27      2.28    -3.190     100.0     -4.75    999.99      999.99
   5647.27      2.28    -2.764     100.0     -4.75    999.99      999.99
   5647.27      2.28    -2.940     100.0     -4.75    999.99      999.99
average abundance =  3.11     std. deviation =  0.78     #lines =  11
E.P. correlation:  slope =   1.091  intercept =   1.997  corr. coeff. =   0.763
 No statistics done for R.W. trends
wav. correl.:  slope =   9.705E-04  intercept =  -1.032  corr. coeff. =   0.808
